# Archivo con P(tau) promediada entre las historias
#
# Nombre del archivo procesado: medicion04.a.inter.D2.bin
#
# Fecha de procesamiento: 16-01-2020 09:56
#
# Tipo de procesamiento: alfa-Rossi Tipo I
#
# Duración del bin (dt) [s]
5.0000E-04
# Máximo bin analizado (dt_max) [s]
5.0000E-02
# Puntos analizados por trigger
100
# Tiempo base del contador [s]
1.2500E-08
# Número de historias (N_hist)
200
# --------------------------------------------------
# Tasa de cuentas promedio [cps] 
4.735145e+02
# Desvío estándar de la tasa de cuentas [cps] 
7.868145e-01
# Cantidad de triggers promedio 
4131.76
# Desvío estándar de la cantidad de triggers 
6.87239
# Tau centrado [s]    <P(tau)>    std(<P(tau)>) 
2.500000e-04 1.778432e+00 4.116659e-03
7.500000e-04 1.326329e+00 3.716631e-03
1.250000e-03 1.244306e+00 3.351305e-03
1.750000e-03 1.192587e+00 3.213931e-03
2.250000e-03 1.154265e+00 3.367135e-03
2.750000e-03 1.115691e+00 3.097552e-03
3.250000e-03 1.092026e+00 2.994154e-03
3.750000e-03 1.072346e+00 3.016486e-03
4.250000e-03 1.057092e+00 2.801475e-03
4.750000e-03 1.042901e+00 3.207103e-03
5.250000e-03 1.028543e+00 3.135923e-03
5.750000e-03 1.024885e+00 2.939629e-03
6.250000e-03 1.022119e+00 3.063982e-03
6.750000e-03 1.020728e+00 2.811792e-03
7.250000e-03 1.006453e+00 2.951415e-03
7.750000e-03 1.009260e+00 2.844325e-03
8.250000e-03 1.006846e+00 2.935883e-03
8.750000e-03 1.003362e+00 2.937020e-03
9.250000e-03 1.006393e+00 3.109986e-03
9.750000e-03 1.005932e+00 2.963261e-03
1.025000e-02 9.985801e-01 2.888699e-03
1.075000e-02 9.970711e-01 2.970627e-03
1.125000e-02 1.003759e+00 2.977161e-03
1.175000e-02 1.001953e+00 2.870698e-03
1.225000e-02 1.007984e+00 2.796648e-03
1.275000e-02 1.003045e+00 2.803293e-03
1.325000e-02 1.004653e+00 2.873007e-03
1.375000e-02 1.006503e+00 2.870503e-03
1.425000e-02 1.004262e+00 3.010308e-03
1.475000e-02 9.999416e-01 2.929245e-03
1.525000e-02 1.002490e+00 2.854151e-03
1.575000e-02 9.973381e-01 2.957436e-03
1.625000e-02 1.001806e+00 2.610058e-03
1.675000e-02 9.978120e-01 2.748941e-03
1.725000e-02 9.977745e-01 2.798007e-03
1.775000e-02 1.006332e+00 2.718027e-03
1.825000e-02 9.975441e-01 2.824213e-03
1.875000e-02 1.000774e+00 2.833609e-03
1.925000e-02 9.956891e-01 2.656464e-03
1.975000e-02 9.968597e-01 2.608008e-03
2.025000e-02 1.000621e+00 2.822474e-03
2.075000e-02 9.963480e-01 2.632541e-03
2.125000e-02 9.999233e-01 2.922757e-03
2.175000e-02 9.979607e-01 2.751306e-03
2.225000e-02 9.932083e-01 2.828475e-03
2.275000e-02 9.970587e-01 2.842237e-03
2.325000e-02 9.959103e-01 2.813726e-03
2.375000e-02 9.978493e-01 2.824671e-03
2.425000e-02 9.991896e-01 2.677662e-03
2.475000e-02 9.975033e-01 2.805834e-03
2.525000e-02 9.934234e-01 2.890078e-03
2.575000e-02 9.949823e-01 2.678747e-03
2.625000e-02 9.984174e-01 2.812491e-03
2.675000e-02 9.955835e-01 3.008677e-03
2.725000e-02 9.989616e-01 2.777831e-03
2.775000e-02 1.001415e+00 2.911933e-03
2.825000e-02 9.998140e-01 2.692102e-03
2.875000e-02 9.943456e-01 2.859884e-03
2.925000e-02 9.972198e-01 2.869080e-03
2.975000e-02 1.002123e+00 2.874979e-03
3.025000e-02 1.002433e+00 2.689819e-03
3.075000e-02 9.999638e-01 2.773583e-03
3.125000e-02 1.000568e+00 3.039646e-03
3.175000e-02 9.986989e-01 2.793808e-03
3.225000e-02 1.003618e+00 2.681996e-03
3.275000e-02 9.966880e-01 3.012186e-03
3.325000e-02 9.958596e-01 3.014055e-03
3.375000e-02 9.962140e-01 2.974597e-03
3.425000e-02 9.947064e-01 2.901153e-03
3.475000e-02 9.975491e-01 2.977713e-03
3.525000e-02 9.954888e-01 2.980799e-03
3.575000e-02 1.001641e+00 2.947524e-03
3.625000e-02 9.993005e-01 2.928554e-03
3.675000e-02 9.898001e-01 3.117482e-03
3.725000e-02 1.002087e+00 2.984163e-03
3.775000e-02 9.964565e-01 2.864343e-03
3.825000e-02 9.921889e-01 2.888230e-03
3.875000e-02 9.999795e-01 2.618832e-03
3.925000e-02 9.974637e-01 2.675514e-03
3.975000e-02 9.944594e-01 3.145093e-03
4.025000e-02 9.968438e-01 2.839421e-03
4.075000e-02 9.988077e-01 2.721762e-03
4.125000e-02 9.987782e-01 2.811272e-03
4.175000e-02 9.990281e-01 3.304772e-03
4.225000e-02 9.968162e-01 2.887206e-03
4.275000e-02 9.959162e-01 2.851204e-03
4.325000e-02 1.000286e+00 2.762371e-03
4.375000e-02 9.992560e-01 3.111639e-03
4.425000e-02 1.003276e+00 2.815834e-03
4.475000e-02 1.000891e+00 3.065415e-03
4.525000e-02 9.979145e-01 2.866581e-03
4.575000e-02 9.976675e-01 2.873829e-03
4.625000e-02 9.991356e-01 2.984127e-03
4.675000e-02 9.998469e-01 2.675182e-03
4.725000e-02 1.002696e+00 2.783679e-03
4.775000e-02 9.980693e-01 2.820732e-03
4.825000e-02 1.006016e+00 2.922458e-03
4.875000e-02 9.992386e-01 3.052247e-03
4.925000e-02 9.980947e-01 3.047594e-03
4.975000e-02 9.987489e-01 2.887229e-03
