# Archivo con P(tau) promediada entre las historias
#
# Nombre del archivo procesado: medicion04.a.inter.D1.bin
#
# Fecha de procesamiento: 24-01-2020 17:37
#
# Tipo de procesamiento: alfa-Rossi Tipo I
#
# Duración del bin (dt) [s]
5.0000E-04
# Máximo bin analizado (dt_max) [s]
5.0000E-02
# Puntos analizados por trigger
100
# Tiempo base del contador [s]
1.2500E-08
# Número de historias (N_hist)
200
# --------------------------------------------------
# Tasa de cuentas promedio [cps] 
1.732158e+02
# Desvío estándar de la tasa de cuentas [cps] 
3.529763e-01
# Cantidad de triggers promedio 
1510.15
# Desvío estándar de la cantidad de triggers 
3.06511
# Tau centrado [s]    <P(tau)>    std(<P(tau)>) 
2.500000e-04 1.574093e+00 7.763287e-03
7.500000e-04 1.370135e+00 7.446657e-03
1.250000e-03 1.258118e+00 7.048209e-03
1.750000e-03 1.192806e+00 7.265391e-03
2.250000e-03 1.150532e+00 7.061809e-03
2.750000e-03 1.102226e+00 6.760215e-03
3.250000e-03 1.091105e+00 7.256325e-03
3.750000e-03 1.054326e+00 6.438745e-03
4.250000e-03 1.053845e+00 5.877972e-03
4.750000e-03 1.039907e+00 6.423036e-03
5.250000e-03 1.035696e+00 6.883813e-03
5.750000e-03 1.022144e+00 6.634393e-03
6.250000e-03 1.019267e+00 6.471032e-03
6.750000e-03 1.010630e+00 6.074449e-03
7.250000e-03 9.980000e-01 6.531434e-03
7.750000e-03 1.008765e+00 6.395265e-03
8.250000e-03 1.001818e+00 6.780031e-03
8.750000e-03 9.987113e-01 6.482378e-03
9.250000e-03 9.989921e-01 6.119961e-03
9.750000e-03 9.936609e-01 6.565220e-03
1.025000e-02 9.918012e-01 6.805150e-03
1.075000e-02 9.933107e-01 6.433831e-03
1.125000e-02 9.917859e-01 6.725871e-03
1.175000e-02 1.001890e+00 6.550773e-03
1.225000e-02 1.000626e+00 6.215366e-03
1.275000e-02 9.944570e-01 6.154996e-03
1.325000e-02 9.974690e-01 6.317065e-03
1.375000e-02 9.929576e-01 6.313370e-03
1.425000e-02 9.845381e-01 6.905333e-03
1.475000e-02 1.006044e+00 6.565952e-03
1.525000e-02 9.926983e-01 6.927473e-03
1.575000e-02 9.975457e-01 6.741519e-03
1.625000e-02 9.984237e-01 6.822173e-03
1.675000e-02 9.996166e-01 7.003495e-03
1.725000e-02 1.004991e+00 6.398133e-03
1.775000e-02 9.974630e-01 6.270186e-03
1.825000e-02 9.975844e-01 6.736965e-03
1.875000e-02 9.953852e-01 7.462038e-03
1.925000e-02 9.918984e-01 6.433124e-03
1.975000e-02 9.968283e-01 6.522678e-03
2.025000e-02 9.967908e-01 6.194208e-03
2.075000e-02 9.991841e-01 6.020140e-03
2.125000e-02 1.000819e+00 6.451778e-03
2.175000e-02 1.008979e+00 6.360147e-03
2.225000e-02 1.000493e+00 6.651975e-03
2.275000e-02 1.008415e+00 7.076998e-03
2.325000e-02 9.983759e-01 6.156073e-03
2.375000e-02 1.004625e+00 6.987810e-03
2.425000e-02 9.920790e-01 6.207982e-03
2.475000e-02 9.947718e-01 6.469797e-03
2.525000e-02 9.987198e-01 6.264628e-03
2.575000e-02 9.998823e-01 6.745245e-03
2.625000e-02 1.002522e+00 6.384284e-03
2.675000e-02 1.002302e+00 6.793447e-03
2.725000e-02 9.949832e-01 6.347371e-03
2.775000e-02 9.934345e-01 6.350142e-03
2.825000e-02 9.977235e-01 6.153041e-03
2.875000e-02 9.964200e-01 6.626038e-03
2.925000e-02 9.998329e-01 6.470372e-03
2.975000e-02 9.914350e-01 6.605685e-03
3.025000e-02 9.906516e-01 5.997672e-03
3.075000e-02 1.003842e+00 6.737361e-03
3.125000e-02 9.880544e-01 6.424284e-03
3.175000e-02 9.969960e-01 6.402159e-03
3.225000e-02 9.954864e-01 6.204600e-03
3.275000e-02 1.002470e+00 6.108873e-03
3.325000e-02 9.937787e-01 6.667068e-03
3.375000e-02 9.867592e-01 6.337666e-03
3.425000e-02 1.001451e+00 6.843650e-03
3.475000e-02 9.957657e-01 5.957690e-03
3.525000e-02 9.928706e-01 6.610359e-03
3.575000e-02 9.809258e-01 6.630878e-03
3.625000e-02 9.884634e-01 6.338230e-03
3.675000e-02 9.947431e-01 5.756059e-03
3.725000e-02 1.003268e+00 6.583405e-03
3.775000e-02 9.928646e-01 6.392194e-03
3.825000e-02 9.945021e-01 6.260303e-03
3.875000e-02 9.962485e-01 6.805921e-03
3.925000e-02 9.863259e-01 6.294769e-03
3.975000e-02 9.954291e-01 6.419121e-03
4.025000e-02 1.000664e+00 6.444289e-03
4.075000e-02 9.889011e-01 6.500568e-03
4.125000e-02 9.959505e-01 6.379733e-03
4.175000e-02 9.955240e-01 6.528845e-03
4.225000e-02 9.948446e-01 6.722802e-03
4.275000e-02 1.000351e+00 6.716745e-03
4.325000e-02 9.979532e-01 6.589106e-03
4.375000e-02 9.870998e-01 6.472271e-03
4.425000e-02 9.964351e-01 6.671791e-03
4.475000e-02 1.004700e+00 6.655773e-03
4.525000e-02 1.002259e+00 6.983682e-03
4.575000e-02 1.007762e+00 6.039850e-03
4.625000e-02 9.912514e-01 6.166391e-03
4.675000e-02 1.007101e+00 7.108861e-03
4.725000e-02 1.006065e+00 6.415482e-03
4.775000e-02 1.004997e+00 7.161175e-03
4.825000e-02 1.003670e+00 5.803116e-03
4.875000e-02 9.956604e-01 6.435350e-03
4.925000e-02 9.933868e-01 6.353154e-03
4.975000e-02 1.004396e+00 6.123742e-03
