# Archivo con P(tau) promediada entre las historias
#
# Nombre del archivo procesado: medicion04.a.inter.D1.txt
#
# Fecha de procesamiento: 24-01-2020 16:50
#
# Tipo de procesamiento: alfa-Rossi Tipo I
#
# Duración del bin (dt) [s]
5.0000E-04
# Máximo bin analizado (dt_max) [s]
5.0000E-02
# Puntos analizados por trigger
100
# Tiempo base del contador [s]
1.0000E+00
# Número de historias (N_hist)
200
# --------------------------------------------------
# Tasa de cuentas promedio [cps] 
1.732158e+02
# Desvío estándar de la tasa de cuentas [cps] 
3.529767e-01
# Cantidad de triggers promedio 
1510.15
# Desvío estándar de la cantidad de triggers 
3.06511
# Tau centrado [s]    <P(tau)>    std(<P(tau)>) 
2.500000e-04 1.574312e+00 7.745064e-03
7.500000e-04 1.374387e+00 7.443027e-03
1.250000e-03 1.253859e+00 6.968717e-03
1.750000e-03 1.195613e+00 7.230090e-03
2.250000e-03 1.145108e+00 7.026044e-03
2.750000e-03 1.106095e+00 6.824950e-03
3.250000e-03 1.086359e+00 7.149469e-03
3.750000e-03 1.058324e+00 6.492985e-03
4.250000e-03 1.048406e+00 5.879471e-03
4.750000e-03 1.045095e+00 6.512870e-03
5.250000e-03 1.039166e+00 6.821147e-03
5.750000e-03 1.017838e+00 6.624308e-03
6.250000e-03 1.022739e+00 6.479290e-03
6.750000e-03 1.005252e+00 6.078355e-03
7.250000e-03 1.002387e+00 6.459909e-03
7.750000e-03 1.003205e+00 6.469491e-03
8.250000e-03 1.005178e+00 6.804914e-03
8.750000e-03 9.953789e-01 6.527276e-03
9.250000e-03 1.002263e+00 6.121864e-03
9.750000e-03 9.971083e-01 6.569236e-03
1.025000e-02 9.889819e-01 6.753614e-03
1.075000e-02 9.953799e-01 6.405112e-03
1.125000e-02 9.876787e-01 6.693456e-03
1.175000e-02 1.005590e+00 6.513868e-03
1.225000e-02 9.965670e-01 6.171264e-03
1.275000e-02 9.973651e-01 6.133401e-03
1.325000e-02 9.934323e-01 6.356986e-03
1.375000e-02 9.963012e-01 6.296751e-03
1.425000e-02 9.889670e-01 6.940288e-03
1.475000e-02 1.000910e+00 6.567264e-03
1.525000e-02 9.958239e-01 6.925677e-03
1.575000e-02 9.935923e-01 6.673499e-03
1.625000e-02 1.002080e+00 6.851968e-03
1.675000e-02 9.949732e-01 7.006603e-03
1.725000e-02 1.009328e+00 6.391716e-03
1.775000e-02 9.921889e-01 6.255661e-03
1.825000e-02 1.001036e+00 6.719989e-03
1.875000e-02 9.911410e-01 7.463164e-03
1.925000e-02 9.961126e-01 6.446387e-03
1.975000e-02 1.000490e+00 6.484489e-03
2.025000e-02 9.915002e-01 6.188621e-03
2.075000e-02 1.003768e+00 6.106486e-03
2.125000e-02 9.951778e-01 6.486268e-03
2.175000e-02 1.013014e+00 6.305983e-03
2.225000e-02 9.955615e-01 6.670829e-03
2.275000e-02 1.012528e+00 7.077846e-03
2.325000e-02 9.926803e-01 6.280952e-03
2.375000e-02 1.009228e+00 6.997048e-03
2.425000e-02 9.970582e-01 6.176049e-03
2.475000e-02 9.896156e-01 6.463101e-03
2.525000e-02 1.002283e+00 6.214690e-03
2.575000e-02 9.942671e-01 6.746116e-03
2.625000e-02 1.007486e+00 6.429442e-03
2.675000e-02 9.976405e-01 6.860109e-03
2.725000e-02 9.984509e-01 6.421285e-03
2.775000e-02 9.890873e-01 6.279335e-03
2.825000e-02 1.000137e+00 6.140185e-03
2.875000e-02 1.000952e+00 6.594059e-03
2.925000e-02 9.959107e-01 6.464416e-03
2.975000e-02 9.951543e-01 6.604826e-03
3.025000e-02 9.863162e-01 6.002678e-03
3.075000e-02 1.006650e+00 6.754827e-03
3.125000e-02 9.842163e-01 6.330710e-03
3.175000e-02 9.998344e-01 6.466450e-03
3.225000e-02 9.913868e-01 6.228207e-03
3.275000e-02 1.005821e+00 6.122706e-03
3.325000e-02 9.886994e-01 6.733659e-03
3.375000e-02 9.910714e-01 6.344702e-03
3.425000e-02 1.005061e+00 6.879780e-03
3.475000e-02 9.915191e-01 5.946391e-03
3.525000e-02 9.959962e-01 6.584887e-03
3.575000e-02 9.779370e-01 6.691943e-03
3.625000e-02 9.915340e-01 6.408173e-03
3.675000e-02 9.889271e-01 5.809883e-03
3.725000e-02 1.007634e+00 6.666711e-03
3.775000e-02 9.885581e-01 6.304672e-03
3.825000e-02 9.986296e-01 6.345668e-03
3.875000e-02 1.000289e+00 6.743248e-03
3.925000e-02 9.811268e-01 6.275261e-03
3.975000e-02 9.988927e-01 6.476924e-03
4.025000e-02 9.958648e-01 6.451655e-03
4.075000e-02 9.933392e-01 6.536499e-03
4.125000e-02 9.911990e-01 6.324881e-03
4.175000e-02 9.984366e-01 6.445197e-03
4.225000e-02 9.905454e-01 6.684862e-03
4.275000e-02 1.004130e+00 6.745563e-03
4.325000e-02 1.002278e+00 6.620055e-03
4.375000e-02 9.820684e-01 6.481021e-03
4.425000e-02 1.000395e+00 6.715461e-03
4.475000e-02 9.997876e-01 6.710407e-03
4.525000e-02 1.005232e+00 6.960985e-03
4.575000e-02 1.004033e+00 6.081407e-03
4.625000e-02 9.953640e-01 6.159886e-03
4.675000e-02 1.002321e+00 7.074469e-03
4.725000e-02 1.008316e+00 6.396492e-03
4.775000e-02 1.001147e+00 7.074377e-03
4.825000e-02 1.009009e+00 5.795563e-03
4.875000e-02 9.981808e-01 6.445332e-03
4.925000e-02 9.887485e-01 6.277268e-03
4.975000e-02 1.007735e+00 6.168675e-03
